   1 Hydro  5   1.0079400000   7  0.99212 8.3748E-05 8.3755E-05 D  1  1  4 E
  H   Hydrogen gas (H%2#)
      19.2   9.5835   1.8639   3.2718  0.14092   5.7273     0.00
         1  1.000000  1.000000
Boiling point                   -252.87       20.267 K
Melting point                   -259.34       13.82 K
Index of ref (n-1)*E6           132.0         http://www.kayelaby.npl.co.uk/
Note: The mass of atomic <SUP>1</SUP> is 1.007 276 522 6 (13) u (mass of the proton less binding energy of 13.61 eV = 1.461E-09 u).
----------------------------------------------------------------------------    
   2 Heliu  6   4.0026020000   2  0.49967 1.6632E-04 1.6632E-04 G  1  1  2 E
  He  Helium gas
      41.8  11.1393   2.2017   3.6122  0.13443   5.8347     0.00
         2  1.000000  1.000000
Boiling point                   -268.93
Index of ref (n-1)*E6            35.0         http://www.kayelaby.npl.co.uk/
----------------------------------------------------------------------------    
   3 Lithi  3   6.9410000000   2  0.43221 5.3400E-01 5.3400E-01 S  1  1  2 E
  Li  Lithium
      40.0   3.1221   0.1304   1.6397  0.95136   2.4993     0.14
         3  1.000000  1.000000
melting point               180.5
boiling point               1342.
----------------------------------------------------------------------------    
   4 Beryl  6   9.0121820000   3  0.44384 1.8480E+00 1.8480E+00 S  1  1  2 E
  Be  Beryllium
      63.7   2.7847   0.0592   1.6922  0.80392   2.4339     0.14
         4  1.000000  1.000000
melting point               1287.
boiling point               2471.
----------------------------------------------------------------------------    
   5 Boron  3  10.8110000000   7  0.46249 2.3700E+00 2.3700E+00 S  1  1  0 E
  B   Boron
      76.0   2.8477   0.0305   1.9688  0.56224   2.4512     0.14
         5  1.000000  1.000000
----------------------------------------------------------------------------    
   6 Carbo  4  12.0107000000   8  0.49955 2.0000E+00 2.0000E+00 S  1  1  0 E
  C   Carbon (amorphous)
      78.0   2.9925  -0.0351   2.4860  0.20240   3.0036     0.10
         6  1.000000  1.000000
----------------------------------------------------------------------------    
   7 Nitro  4  14.0067000000   2  0.49976 1.1653E-03 1.1653E-03 D  1  1  3 E
  N   Nitrogen gas  (N%2#)
      82.0  10.5400   1.7378   4.1323  0.15349   3.2125     0.00
         7  1.000000  1.000000
Melting point (C)               -210.00
Boiling point (C)               -195.86
Index of ref (n-1)*E6           298.0         http://www.kayelaby.npl.co.uk/
----------------------------------------------------------------------------    
   8 Oxyge  4  15.9994000000   3  0.50002 1.3315E-03 1.3315E-03 D  1  1  3 E
  O   Oxygen gas   (O%2#)
      95.0  10.7004   1.7541   4.3213  0.11778   3.2913     0.00
         8  1.000000  1.000000
Melting point (C)               -218.79
Boiling point (C)               -182.95
Index of ref (n-1)*E6           271.0         http://www.kayelaby.npl.co.uk/
----------------------------------------------------------------------------    
   9 Fluor  7  18.9984032000   5  0.47372 1.5803E-03 1.5803E-03 D  1  1  3 E
  F   Fluorine gas  (F%2#)
     115.0  10.9653   1.8433   4.4096  0.11083   3.2962     0.00
         9  1.000000  1.000000
Melting point                   -219.62
Boiling point                   -188.12
Index ref (n-1)                 195.
----------------------------------------------------------------------------    
  10 Neon   4  20.1797000000   6  0.49555 8.3851E-04 8.3851E-04 G  1  1  3 E
  Ne  Neon gas
     137.0  11.9041   2.0735   4.6421  0.08064   3.5771     0.00
        10  1.000000  1.000000
Boiling point                -246.08
Melting point                -248.59
Index ref                    67.1
----------------------------------------------------------------------------    
  11 Sodiu  8  22.9897692800   2  0.47847 9.7100E-01 9.7100E-01 S  1  1  0 E
  Na  Sodium
     149.0   5.0526   0.2880   3.1962  0.07772   3.6452     0.08
        11  1.000000  1.000000
----------------------------------------------------------------------------    
  12 Magne  4  24.3050000000   6  0.49373 1.7400E+00 1.7400E+00 S  1  1  0 E
  Mg  Magnesium
     156.0   4.5297   0.1499   3.0668  0.08163   3.6166     0.08
        12  1.000000  1.000000
----------------------------------------------------------------------------    
  13 Alumi  7  26.9815386000   8  0.48181 2.6989E+00 2.6989E+00 S  1  1  2 E
  Al  Aluminum
     166.0   4.2395   0.1708   3.0127  0.08024   3.6345     0.12
        13  1.000000  1.000000
melti                           660.32          Aluminum
boili                           2519.           Aluminum
----------------------------------------------------------------------------    
  14 Silic  4  28.0855000000   3  0.49848 2.3300E+00 2.3290E+00 S  1  1  3 E
  Si  Silicon
     173.0   4.4351   0.2014   2.8715  0.14921   3.2546     0.14
        14  1.000000  1.000000
Index of ref                    3.95
Melting point                  1414.
Boiling point                  3265.
----------------------------------------------------------------------------    
  15 Phosp  6  30.9737620000   2  0.48428 2.2000E+00 2.2000E+00 S  1  1  0 E
  P   Phosphorus
     173.0   4.5214   0.1696   2.7815  0.23610   2.9158     0.14
        15  1.000000  1.000000
----------------------------------------------------------------------------    
  16 Sulfu  3  32.0650000000   5  0.49899 2.0000E+00 2.0000E+00 S  1  1  0 E
  S   Sulfur
     180.0   4.6659   0.1580   2.7159  0.33992   2.6456     0.14
        16  1.000000  1.000000
----------------------------------------------------------------------------    
  17 Chlor  3  35.4530000000   2  0.47951 2.9947E-03 2.9800E-03 D  1  1  3 E
  Cl  Chlorine gas     (Cl%2#)
     174.0  11.1421   1.5555   4.2994  0.19849   2.9702     0.00
        17  1.000000  1.000000
Melting point             -101.5
Boiling point             -34.04
Index of ref (n-1)*E6           773.0         http://www.kayelaby.npl.co.uk/
----------------------------------------------------------------------------    
  18 Argon  3  39.9480000000   1  0.45059 1.6620E-03 1.6620E-03 G  1  1  3 E
  Ar  Argon gas
     188.0  11.9480   1.7635   4.4855  0.19714   2.9618     0.00
        18  1.000000  1.000000
Boiling point               -185.89
Melting point               -189.3442
Index of ref (n-1)*E6           281.0         http://www.kayelaby.npl.co.uk/
----------------------------------------------------------------------------    
  19 Potas  4  39.0983000000   1  0.48595 8.6200E-01 8.6200E-01 S  1  1  0 E
  K   Potassium
     190.0   5.6423   0.3851   3.1724  0.19827   2.9233     0.10
        19  1.000000  1.000000
----------------------------------------------------------------------------    
  20 Calci  3  40.0780000000   4  0.49903 1.5500E+00 1.5500E+00 S  1  1  0 E
  Ca  Calcium
     191.0   5.0396   0.3228   3.1191  0.15643   3.0745     0.14
        20  1.000000  1.000000
----------------------------------------------------------------------------    
  21 Scand  6  44.9559120000   6  0.46712 2.9890E+00 2.9890E+00 S  1  1  0 E
  Sc  Scandium
     216.0   4.6949   0.1640   3.0593  0.15754   3.0517     0.10
        21  1.000000  1.000000
----------------------------------------------------------------------------    
  22 Titan  3  47.8670000000   1  0.45961 4.5400E+00 4.5400E+00 S  1  1  2 E
  Ti  Titanium
     233.0   4.4450   0.0957   3.0386  0.15662   3.0302     0.12
        22  1.000000  1.000000
melti                           1668.           Titanium
boili                           3287.           Titanium
----------------------------------------------------------------------------    
  23 Vanad  4  50.9415000000   1  0.45150 6.1100E+00 6.1100E+00 S  1  1  0 E
  V   Vanadium
     245.0   4.2659   0.0691   3.0322  0.15436   3.0163     0.14
        23  1.000000  1.000000
----------------------------------------------------------------------------    
  24 Chrom  4  51.9961000000   6  0.46157 7.1800E+00 7.1800E+00 S  1  1  0 E
  Cr  Chromium
     257.0   4.1781   0.0340   3.0451  0.15419   2.9896     0.14
        24  1.000000  1.000000
----------------------------------------------------------------------------    
  25 Manga  6  54.9380450000   5  0.45506 7.4400E+00 7.4400E+00 S  1  1  0 E
  Mn  Manganese
     272.0   4.2702   0.0447   3.1074  0.14973   2.9796     0.14
        25  1.000000  1.000000
----------------------------------------------------------------------------    
  26 Iron   3  55.8450000000   2  0.46557 7.8740E+00 7.8740E+00 S  1  1  2 E
  Fe  Iron
     286.0   4.2911  -0.0012   3.1531  0.14680   2.9632     0.12
        26  1.000000  1.000000
Melting point C                1538.
Boiling point C                2861.
----------------------------------------------------------------------------    
  27 Cobal  6  58.9331950000   5  0.45815 8.9000E+00 8.9000E+00 S  1  1  0 E
  Co  Cobalt
     297.0   4.2601  -0.0187   3.1790  0.14474   2.9502     0.12
        27  1.000000  1.000000
----------------------------------------------------------------------------    
  28 Nicke  4  58.6934000000   4  0.47706 8.9020E+00 8.9020E+00 S  1  1  0 E
  Ni  Nickel
     311.0   4.3115  -0.0566   3.1851  0.16496   2.8430     0.10
        28  1.000000  1.000000
----------------------------------------------------------------------------    
  29 Coppe  3  63.5460000000   3  0.45636 8.9600E+00 8.9600E+00 S  1  1  2 E
  Cu  Copper
     322.0   4.4190  -0.0254   3.2792  0.14339   2.9044     0.08
        29  1.000000  1.000000
melti                           1084.62         Copper
boili                           2562.           Copper
----------------------------------------------------------------------------    
  30 Zinc   2  65.3800000000   2  0.45886 7.1330E+00 7.1330E+00 S  1  1  0 E
  Zn  Zinc
     330.0   4.6906   0.0049   3.3668  0.14714   2.8652     0.08
        30  1.000000  1.000000
----------------------------------------------------------------------------    
  31 Galli  3  69.7230000000   1  0.44462 5.9040E+00 5.9040E+00 S  1  1  0 E
  Ga  Gallium
     334.0   4.9353   0.2267   3.5434  0.09440   3.1314     0.14
        31  1.000000  1.000000
----------------------------------------------------------------------------    
  32 Germa  2  72.6400000000   1  0.44053 5.3230E+00 5.3230E+00 S  1  1  2 E
  Ge  Germanium
     350.0   5.1411   0.3376   3.6096  0.07188   3.3306     0.14
        32  1.000000  1.000000
melti                           938.25          Germanium
boili                           2833.           Germanium
----------------------------------------------------------------------------    
  33 Arsen  5  74.9216000000   2  0.44046 5.7300E+00 5.7300E+00 S  1  1  0 E
  As  Arsenic
     347.0   5.0510   0.1767   3.5702  0.06633   3.4176     0.08
        33  1.000000  1.000000
----------------------------------------------------------------------------    
  34 Selen  2  78.9600000000   3  0.43060 4.5000E+00 4.5000E+00 S  1  1  0 E
  Se  Selenium
     348.0   5.3210   0.2258   3.6264  0.06568   3.4317     0.10
        34  1.000000  1.000000
----------------------------------------------------------------------------    
  35 Bromi  3  79.9040000000   1  0.43803 7.0722E-03 7.0722E-03 D  1  1  2 E
  Br  Bromine gas  (Br%2#)
     343.0  11.7307   1.5262   4.9899  0.06335   3.4670     0.00
        35  1.000000  1.000000
melting point              -7.2
boiling point              58.78
----------------------------------------------------------------------------    
  36 Krypt  3  83.7980000000   2  0.42960 3.4783E-03 3.4856E-03 G  1  1  2 E
  Kr  Krypton gas
     352.0  12.5115   1.7158   5.0748  0.07446   3.4051     0.00
        36  1.000000  1.000000
melting point              -157.36
boiling point              -153.22
----------------------------------------------------------------------------    
  37 Rubid  4  85.4678000000   3  0.43291 1.5320E+00 1.5320E+00 S  1  1  0 E
  Rb  Rubidium
     363.0   6.4776   0.5737   3.7995  0.07261   3.4177     0.14
        37  1.000000  1.000000
----------------------------------------------------------------------------    
  38 Stron  2  87.6200000000   1  0.43369 2.5400E+00 2.5400E+00 S  1  1  0 E
  Sr  Strontium
     366.0   5.9867   0.4585   3.6778  0.07165   3.4435     0.14
        38  1.000000  1.000000
----------------------------------------------------------------------------    
  39 Yttri  5  88.9058500000   2  0.43867 4.4690E+00 4.4690E+00 S  1  1  0 E
  Y   Yttrium
     379.0   5.4801   0.3608   3.5542  0.07138   3.4585     0.14
        39  1.000000  1.000000
----------------------------------------------------------------------------    
  40 Zirco  3  91.2240000000   2  0.43848 6.5060E+00 6.5060E+00 S  1  1  0 E
  Zr  Zirconium
     393.0   5.1774   0.2957   3.4890  0.07177   3.4533     0.14
        40  1.000000  1.000000
----------------------------------------------------------------------------    
  41 Niobi  5  92.9063800000   2  0.44130 8.5700E+00 8.5700E+00 S  1  1  0 E
  Nb  Niobium
     417.0   5.0141   0.1785   3.2201  0.13883   3.0930     0.14
        41  1.000000  1.000000
----------------------------------------------------------------------------    
  42 Molyb  2  95.9600000000   2  0.43768 1.0220E+01 1.0220E+01 S  1  1  0 E
  Mo  Molybdenum
     424.0   4.8793   0.2267   3.2784  0.10525   3.2549     0.14
        42  1.000000  1.000000
----------------------------------------------------------------------------    
  43 Techn  5  97.9072200000   3  0.43919 1.1500E+01 1.1500E+01 S  1  1  3 R
  Tc  Technetium
     428.0   4.7769   0.0949   3.1253  0.16572   2.9738     0.14
        43  1.000000  1.000000
melting                    2157.
boiling                    4265.
Note: Since there is no stable isotope, [atomic mass] is that of the longest-lived known isotope as of Jan 2007.
----------------------------------------------------------------------------    
  44 Ruthe  2 101.0700000000   2  0.43534 1.2410E+01 1.2410E+01 S  1  1  0 E
  Ru  Ruthenium
     441.0   4.7694   0.0599   3.0834  0.19342   2.8707     0.14
        44  1.000000  1.000000
----------------------------------------------------------------------------    
  45 Rhodi  5 102.9055000000   2  0.43729 1.2410E+01 1.2410E+01 S  1  1  0 E
  Rh  Rhodium
     449.0   4.8008   0.0576   3.1069  0.19205   2.8633     0.14
        45  1.000000  1.000000
----------------------------------------------------------------------------    
  46 Palla  2 106.4200000000   1  0.43225 1.2020E+01 1.2020E+01 S  1  1  0 E
  Pd  Palladium
     470.0   4.9358   0.0563   3.0555  0.24178   2.7239     0.14
        46  1.000000  1.000000
----------------------------------------------------------------------------    
  47 Silve  4 107.8682000000   2  0.43572 1.0500E+01 1.0500E+01 S  1  1  0 E
  Ag  Silver
     470.0   5.0630   0.0657   3.1074  0.24585   2.6899     0.14
        47  1.000000  1.000000
----------------------------------------------------------------------------    
  48 Cadmi  3 112.4110000000   8  0.42700 8.6500E+00 8.6500E+00 S  1  1  0 E
  Cd  Cadmium
     469.0   5.2727   0.1281   3.1667  0.24609   2.6772     0.14
        48  1.000000  1.000000
----------------------------------------------------------------------------    
  49 Indiu  3 114.8180000000   3  0.42676 7.3100E+00 7.3100E+00 S  1  1  0 E
  In  Indium
     488.0   5.5211   0.2406   3.2032  0.23879   2.7144     0.14
        49  1.000000  1.000000
----------------------------------------------------------------------------    
  50 Tin    3 118.7100000000   7  0.42119 7.3100E+00 7.3100E+00 S  1  1  2 E
  Sn  Tin
     488.0   5.5340   0.2879   3.2959  0.18689   2.8576     0.14
        50  1.000000  1.000000
melti                        231.93             Tin
boili                        2602.              Tin
----------------------------------------------------------------------------    
  51 Antim  3 121.7600000000   1  0.41886 6.6910E+00 6.6910E+00 S  1  1  0 E
  Sb  Antimony
     487.0   5.6241   0.3189   3.3489  0.16652   2.9319     0.14
        51  1.000000  1.000000
----------------------------------------------------------------------------    
  52 Tellu  2 127.6000000000   3  0.40752 6.2400E+00 6.2400E+00 S  1  1  0 E
  Te  Tellurium
     485.0   5.7131   0.3296   3.4418  0.13815   3.0354     0.14
        52  1.000000  1.000000
----------------------------------------------------------------------------    
  53 Iodin  5 126.9044700000   3  0.41764 4.9300E+00 4.9300E+00 S  1  1  2 E
  I   Iodine
     491.0   5.9488   0.0549   3.2596  0.23766   2.7276     0.00
        53  1.000000  1.000000
melting point                113.7
boiling point                184.4
----------------------------------------------------------------------------    
  54 Xenon  3 131.2930000000   6  0.41129 5.4854E-03 5.4830E-03 G  1  1  3 E
  Xe  Xenon gas
     482.0  12.7281   1.5630   4.7371  0.23314   2.7414     0.00
        54  1.000000  1.000000
Index ref                 701.
Melting point             -111.75
Boiling point             -108.0
----------------------------------------------------------------------------    
  55 Cesiu  7 132.9054519000   2  0.41383 1.8730E+00 1.8730E+00 S  1  1  0 E
  Cs  Cesium
     488.0   6.9135   0.5473   3.5914  0.18233   2.8866     0.14
        55  1.000000  1.000000
----------------------------------------------------------------------------    
  56 Bariu  3 137.3270000000   7  0.40779 3.5000E+00 3.5000E+00 S  1  1  0 E
  Ba  Barium
     491.0   6.3153   0.4190   3.4547  0.18268   2.8906     0.14
        56  1.000000  1.000000
----------------------------------------------------------------------------    
  57 Lanth  5 138.9054700000   7  0.41035 6.1540E+00 6.1540E+00 S  1  1  0 E
  La  Lanthanum
     501.0   5.7850   0.3161   3.3293  0.18591   2.8828     0.14
        57  1.000000  1.000000
----------------------------------------------------------------------------    
  58 Ceriu  3 140.1160000000   1  0.41394 6.6570E+00 6.6570E+00 S  1  1  0 E
  Ce  Cerium
     523.0   5.7837   0.2713   3.3432  0.18885   2.8592     0.14
        58  1.000000  1.000000
----------------------------------------------------------------------------    
  59 Prase  5 140.9076500000   2  0.41871 6.7100E+00 6.7100E+00 S  1  1  0 E
  Pr  Praseodymium
     535.0   5.8096   0.2333   3.2773  0.23265   2.7331     0.14
        59  1.000000  1.000000
----------------------------------------------------------------------------    
  60 Neody  3 144.2420000000   3  0.41597 6.9000E+00 6.9000E+00 S  1  1  0 E
  Nd  Neodymium
     546.0   5.8290   0.1984   3.3063  0.23530   2.7050     0.14
        60  1.000000  1.000000
----------------------------------------------------------------------------    
  61 Prome  5 144.9127500000   3  0.42094 7.2200E+00 7.2200E+00 S  1  1  1 R
  Pm  Promethium
     560.0   5.8224   0.1627   3.3199  0.24280   2.6674     0.14
        61  1.000000  1.000000
Note: Since there is no stable isotope, [atomic mass] is that of the longest-lived known isotope as of Jan 2007.
----------------------------------------------------------------------------    
  62 Samar  2 150.3600000000   2  0.41234 7.4600E+00 7.4600E+00 S  1  1  0 E
  Sm  Samarium
     574.0   5.8597   0.1520   3.3460  0.24698   2.6403     0.14
        62  1.000000  1.000000
----------------------------------------------------------------------------    
  63 Europ  3 151.9640000000   1  0.41457 5.2430E+00 5.2430E+00 S  1  1  0 E
  Eu  Europium
     580.0   6.2278   0.1888   3.4633  0.24448   2.6245     0.14
        63  1.000000  1.000000
----------------------------------------------------------------------------    
  64 Gadol  2 157.2500000000   3  0.40700 7.9004E+00 7.9004E+00 S  1  1  0 E
  Gd  Gadolinium
     591.0   5.8738   0.1058   3.3932  0.25109   2.5977     0.14
        64  1.000000  1.000000
